* Exported with UsyTrace, available at https://usyless.github.io/trace
* Freq(Hz)	SPL(dB)
20.000000	63.145161
20.290907	63.145161
20.586045	63.077240
20.885476	63.129480
21.189262	63.044727
21.497467	63.066787
21.810155	63.009340
22.127391	62.967332
22.449241	62.993586
22.775773	63.020222
23.107054	63.005129
23.443154	62.982456
23.784142	62.960429
24.130091	62.942443
24.481071	62.924196
24.837156	62.905683
25.198421	62.886901
25.564940	62.867846
25.936791	62.848513
26.314050	62.824329
26.696797	62.797859
27.085111	62.777695
27.479073	62.766646
27.878765	62.755436
28.284271	62.744063
28.695675	62.732525
29.113064	62.719665
29.536523	62.693433
29.966142	62.666819
30.402009	62.636292
30.844217	62.604399
31.292856	62.590280
31.748021	62.578267
32.209807	62.566079
32.678309	62.553713
33.153626	62.541168
33.635857	62.519434
34.125101	62.496733
34.621462	62.476944
35.125043	62.465919
35.635949	62.454734
36.154286	62.443386
36.680162	62.431874
37.213687	62.420193
37.754973	62.382669
38.304131	62.348328
38.861278	62.321973
39.426528	62.297109
40.000000	62.286108
40.581813	62.274947
41.172089	62.263623
41.770951	62.252135
42.378524	62.240480
42.994934	62.217475
43.620309	62.190977
44.254781	62.172389
44.898482	62.162094
45.551545	62.151649
46.214108	62.141053
46.886308	62.130302
47.568285	62.119395
48.260181	62.092493
48.962142	62.060609
49.674312	62.033660
50.396842	62.007127
51.129881	61.989576
51.873582	61.978501
52.628101	61.967264
53.393594	61.955864
54.170222	61.944299
54.958146	61.929035
55.757531	61.902740
56.568542	61.876062
57.391351	61.865185
58.226127	61.854820
59.073046	61.844305
59.932283	61.833637
60.804018	61.822813
61.688433	61.806895
62.585712	61.775255
63.496042	61.743450
64.419613	61.711767
65.356618	61.689156
66.307252	61.678871
67.271713	61.668435
68.250203	61.657848
69.242925	61.647107
70.250086	61.636210
71.271897	61.614395
72.308571	61.587921
73.360323	61.568233
74.427374	61.557948
75.509945	61.547514
76.608262	61.536927
77.722555	61.526187
78.853056	61.515290
80.000000	61.493542
81.163627	61.467071
82.344179	61.445249
83.541903	61.430037
84.757048	61.414603
85.989867	61.398945
87.240619	61.383059
88.509563	61.366942
89.796964	61.350591
91.103091	61.334001
92.428216	61.323017
93.772615	61.313349
95.136569	61.303542
96.520362	61.293591
97.924283	61.283496
99.348625	61.273254
100.793684	61.267172
102.259762	61.262853
103.747164	61.258472
105.256202	61.254027
106.787188	61.249518
108.340444	61.244943
109.916292	61.240301
111.515061	61.235592
113.137085	61.230814
114.782702	61.225967
116.452255	61.221049
118.146092	61.216060
119.864566	61.210999
121.608036	61.208404
123.376866	61.206664
125.171424	61.204898
126.992084	61.203107
128.839227	61.201290
130.713236	61.199447
132.614504	61.197577
134.543426	61.195679
136.500406	61.193754
138.485850	61.191801
140.500173	61.189820
142.543795	61.187810
144.617142	61.185770
146.720647	61.183701
148.854748	61.181602
151.019890	61.179472
153.216525	61.177311
155.445111	61.175119
157.706112	61.172895
160.000000	61.170638
162.327254	61.168349
164.688358	61.166027
167.083805	61.163670
169.514095	61.161280
171.979734	61.158854
174.481237	61.156394
177.019125	61.153897
179.593928	61.151364
182.206182	61.148812
184.856431	61.146318
187.545230	61.143788
190.273138	61.141221
193.040725	61.138617
195.848567	61.135974
198.697250	61.133294
201.587368	61.130574
204.519524	61.127815
207.494329	61.125016
210.512403	61.122176
213.574377	61.119294
216.680888	61.116371
219.832584	61.113405
223.030122	61.110396
226.274170	61.107344
229.565404	61.104247
232.904509	61.101104
236.292183	61.097917
239.729132	61.094682
243.216073	61.091401
246.753732	61.087531
250.342848	61.081284
253.984168	61.074946
257.678453	61.068517
261.426473	61.061993
265.229008	61.055375
269.086853	61.048661
273.000811	61.041849
276.971700	61.034937
281.000346	61.028079
285.087590	61.024602
289.234284	61.021074
293.441294	61.017495
297.709496	61.013864
302.039780	61.010180
306.433050	61.006443
310.890221	61.002651
315.412224	60.998804
320.000000	60.994901
324.654507	60.990941
329.376716	60.986923
334.167610	60.982848
339.028190	60.978713
343.959469	60.974517
348.962474	60.970261
354.038251	60.969103
359.187855	60.972417
364.412363	60.975780
369.712863	60.979191
375.090460	60.982652
380.546277	60.986164
386.081450	60.989726
391.697134	60.993341
397.394500	60.997007
403.174736	61.000728
409.039048	61.004502
414.988657	61.008331
421.024807	61.012216
427.148753	61.016158
433.361775	61.020156
439.665167	61.024213
446.060244	61.028545
452.548340	61.041434
459.130807	61.054511
465.809019	61.067777
472.584367	61.081237
479.458265	61.097295
486.432146	61.116532
493.507464	61.136050
500.685695	61.155851
507.968337	61.175940
515.356906	61.196321
522.852945	61.220737
530.458016	61.252426
538.173706	61.287741
546.001623	61.327517
553.943399	61.354390
562.000691	61.380504
570.175180	61.406998
578.468569	61.433878
586.882588	61.469916
595.418991	61.518509
604.079560	61.550131
612.866100	61.579109
621.780442	61.601169
630.824447	61.623550
640.000000	61.646256
649.309014	61.669293
658.753431	61.692665
668.335221	61.731575
678.056380	61.767780
687.918938	61.799509
697.924949	61.786500
708.076501	61.764937
718.375711	61.793285
728.824726	61.822046
739.425726	61.851225
750.180921	61.880099
761.092554	61.906375
772.162900	61.933033
783.394268	61.941691
794.789000	61.948615
806.349472	61.955640
818.078095	61.962768
829.977315	61.969999
842.049613	61.977335
854.297507	61.984778
866.723550	61.992329
879.330334	62.000129
892.120489	62.008169
905.096680	62.016327
918.261614	62.024603
931.618037	62.033000
945.168733	62.041519
958.916529	62.050161
972.864291	62.062716
987.014928	62.085204
1001.371391	62.108018
1015.936673	62.143791
1030.713812	62.188111
1045.705890	62.233077
1060.916032	62.278696
1076.347412	62.324979
1092.003245	62.369752
1107.886798	62.409431
1124.001383	62.459026
1140.350359	62.528076
1156.937137	62.486325
1173.765175	62.564158
1190.837983	62.643122
1208.159120	62.723235
1225.732199	62.803793
1243.560885	62.869598
1261.648894	62.932227
1280.000000	62.995547
1298.618029	63.056540
1317.506863	63.127485
1336.670442	63.199462
1356.112761	63.272486
1375.837875	63.284122
1395.849898	63.366659
1416.153002	63.426302
1436.751422	63.495119
1457.649452	63.574356
1478.851452	63.652179
1500.361842	63.731133
1522.185107	63.811236
1544.325799	63.891807
1566.788535	64.001421
1589.577999	64.109185
1612.698944	64.207353
1636.156190	64.337373
1659.954630	64.463259
1684.099226	64.590977
1708.595013	64.719441
1733.447100	64.819322
1758.660669	64.978006
1784.240977	65.136713
1810.193360	65.293100
1836.523229	65.451651
1863.236074	65.612509
1890.337467	65.710932
1917.833058	65.869648
1945.728583	66.028302
1974.029857	66.218967
2002.742782	66.416874
2031.873347	66.617660
2061.427625	66.784016
2091.411780	66.942694
2121.832065	67.106960
2152.694823	67.302827
2184.006490	67.501544
2215.773596	67.689897
2248.002765	67.796606
2280.700718	67.955262
2313.874274	68.111782
2347.530351	68.233145
2381.675966	68.356273
2416.318240	68.481192
2451.464399	68.561277
2487.121769	68.603904
2523.297789	68.635654
2560.000000	68.625637
2597.236057	68.584407
2635.013726	68.542577
2673.340883	68.500139
2712.225522	68.457084
2751.675750	68.413403
2791.699796	68.339023
2832.306004	68.259726
2873.502844	68.195596
2915.298905	68.123068
2957.702904	68.023789
3000.723683	67.923066
3044.370214	67.820877
3088.651599	67.723183
3133.577071	67.613564
3179.155999	67.534268
3225.397888	67.454908
3272.312380	67.364358
3319.909260	67.269980
3368.198452	67.174228
3417.190027	67.077084
3466.894200	66.967464
3517.321337	66.857907
3568.481954	66.748326
3620.386720	66.652441
3673.046457	66.542717
3726.472148	66.431397
3780.674934	66.318457
3835.666117	66.230573
3891.457165	66.090813
3948.059713	65.981193
4005.485564	65.892474
4063.746693	65.783133
4122.855250	65.672201
4182.823560	65.559656
4243.664130	65.433290
4305.389646	65.324744
4368.012981	65.214130
4431.547192	65.131420
4496.005531	65.010017
4561.401437	64.886848
4627.748549	64.761888
4695.060701	64.666200
4763.351932	64.576897
4832.636481	64.477241
4902.928797	64.331064
4974.243539	64.221885
5046.595577	64.111118
5120.000000	63.998740
5194.472115	63.899157
5270.027452	63.819776
5346.681766	63.710224
5424.451043	63.630817
5503.351500	63.559474
5583.399591	63.487300
5664.612008	63.414077
5747.005687	63.339788
5830.597810	63.265543
5915.405808	63.239333
6001.447367	63.212742
6088.740429	63.176631
6177.303198	63.161464
6267.154142	63.239439
6358.311998	63.318548
6450.795775	63.398808
6544.624761	63.479178
6639.818520	63.609104
6736.396904	63.707306
6834.380053	63.866011
6933.788400	64.041333
7034.642675	64.219695
7136.963909	64.400651
7240.773439	64.500715
7346.092914	64.659433
7452.944296	64.818084
7561.349867	64.959201
7671.332234	65.099539
7782.914330	65.241918
7896.119426	65.357394
8010.971128	65.299149
8127.493386	65.219799
8245.710500	65.078566
8365.647121	64.854571
8487.328260	64.627319
8610.779292	64.421825
8736.025961	64.202535
8863.094385	63.983347
8992.011061	63.666072
9122.802874	63.303097
9255.497097	63.022624
9390.121402	62.690958
9526.703863	62.311282
9665.272962	62.003167
9805.857594	61.753238
9948.487077	61.564687
10093.191154	61.301767
10240.000000	60.983418
10388.944230	60.846594
10540.054903	60.627556
10693.363532	60.402302
10848.902086	60.178031
11006.703001	59.950498
11166.799182	59.750867
11329.224017	59.592198
11494.011375	59.373038
11661.195620	59.185611
11830.811616	58.948508
12002.894734	58.715528
12177.480858	58.504800
12354.606395	58.337690
12534.308283	58.175864
12716.623996	57.939909
12901.591551	57.700523
13089.249521	57.521468
13279.637040	57.302337
13472.793808	57.143644
13668.760107	56.930922
13867.576801	56.692696
14069.285350	56.486128
14273.927818	56.327464
14481.546879	56.108301
14692.185828	55.900942
14905.888592	55.674540
15122.699734	55.457268
15342.664467	55.352586
15565.828661	55.133438
15792.238852	54.975950
16021.942256	54.854631
16254.986772	54.731548
16491.420999	54.606675
16731.294241	54.508756
16974.656520	54.429389
17221.558584	54.358444
17472.051922	54.306434
17726.188769	54.258875
17984.022122	54.210624
18245.605748	54.161672
18510.994194	54.112007
18780.242805	54.072581
19053.407727	54.072581
19330.545924	54.072581
19611.715189	54.072581
19896.974155	54.072581
20186.382308	54.072581